Photodiode Gain (dB),Labsphere Brightness at 900 nm (W/ster/cm^2/nm),Signal out (V),Aperture Factor,Calibration Factor (W/ster/cm^2/nm/V) at 900 nm and 2900 K
0,  0.0203,  0.0156,  0.2484,   1.301
10,  0.0203,  0.0487,  0.2484,  0.4168
20, 0.00202,  0.0154, 0.02471,  0.1312
30, 0.00202,  0.0498, 0.02471, 0.04056
40,0.000931,  0.0669, 0.01139, 0.01392
50,5.14e-05,  0.0118,0.0006289,0.004356
60,5.14e-05,  0.0404,0.0006289,0.001272
70,5.14e-05,  0.1353,0.0006289,0.0003799
